Data from Transmission_12-23-49-044.txt Node
Date: Thu Aug 01 12:23:49 CEST 2019
User: Ocean Optics
Spectrometer: QEP02356
Trigger mode: 4
Integration Time (sec): 1.000000E-1
Scans to average: 100
Electric dark correction enabled: true
Nonlinearity correction enabled: true
Boxcar width: 0
XAxis mode: Wavelengths
Number of Pixels in Spectrum: 1044
>>>>>Begin Spectral Data<<<<<
194.596	16.36
195.4	-9.74
196.203	4.23
197.007	-88.15
197.81	30.97
198.613	31.57
199.417	31.5
200.22	31.61
201.023	30.89
201.826	30.01
202.629	28.28
203.432	27.25
204.235	25.73
205.038	24.42
205.84	23.34
206.643	23
207.445	22.57
208.248	22.51
209.05	22.07
209.853	21.02
210.655	19.76
211.457	18.37
212.259	17.18
213.061	16.46
213.863	15.85
214.665	15.3
215.467	14.41
216.269	13.5
217.07	12.76
217.872	11.75
218.674	10.9
219.475	10.23
220.277	9.49
221.078	8.37
221.879	7.3
222.68	6.74
223.481	6.49
224.283	6.06
225.084	5.48
225.884	4.68
226.685	3.9
227.486	3.07
228.287	1.89
229.087	1.12
229.888	0.92
230.688	1.32
231.489	1.71
232.289	1.88
233.089	2.35
233.89	2.17
234.69	1.81
235.49	1.84
236.29	1.94
237.09	1.95
237.89	2.01
238.689	2.01
239.489	1.88
240.289	1.63
241.088	1.3
241.888	1.05
242.687	0.77
243.486	0.72
244.286	0.93
245.085	1.19
245.884	1.1
246.683	0.68
247.482	0.4
248.281	0.4
249.08	0.55
249.878	0.73
250.677	0.99
251.476	1
252.274	0.77
253.073	0.63
253.871	0.79
254.67	0.98
255.468	1.02
256.266	0.93
257.064	0.92
257.862	0.76
258.66	0.67
259.458	0.48
260.256	0.31
261.054	0.27
261.851	0.41
262.649	0.55
263.446	0.59
264.244	0.62
265.041	0.68
265.839	0.63
266.636	0.56
267.433	0.48
268.23	0.46
269.027	0.48
269.824	0.5
270.621	0.49
271.418	0.47
272.215	0.44
273.011	0.4
273.808	0.38
274.604	0.42
275.401	0.47
276.197	0.46
276.994	0.44
277.79	0.45
278.586	0.47
279.382	0.44
280.178	0.45
280.974	0.42
281.77	0.4
282.566	0.4
283.361	0.37
284.157	0.37
284.953	0.36
285.748	0.31
286.544	0.29
287.339	0.31
288.134	0.34
288.93	0.35
289.725	0.34
290.52	0.32
291.315	0.31
292.11	0.34
292.905	0.37
293.699	0.37
294.494	0.37
295.289	0.43
296.083	0.58
296.878	0.75
297.672	0.84
298.467	0.92
299.261	0.92
300.055	0.6
300.849	0.35
301.643	0.3
302.437	0.29
303.231	0.29
304.025	0.29
304.819	0.27
305.612	0.27
306.406	0.27
307.2	0.27
307.993	0.27
308.786	0.26
309.58	0.24
310.373	0.22
311.166	0.2
311.959	0.2
312.752	0.2
313.545	0.22
314.338	0.25
315.131	0.24
315.924	0.24
316.716	0.25
317.509	0.24
318.302	0.24
319.094	0.25
319.886	0.24
320.679	0.24
321.471	0.24
322.263	0.24
323.055	0.23
323.847	0.23
324.639	0.21
325.431	0.21
326.223	0.2
327.015	0.2
327.806	0.2
328.598	0.2
329.389	0.21
330.181	0.21
330.972	0.21
331.763	0.21
332.555	0.2
333.346	0.21
334.137	0.21
334.928	0.2
335.719	0.2
336.51	0.19
337.3	0.2
338.091	0.19
338.882	0.19
339.672	0.2
340.463	0.2
341.253	0.19
342.043	0.18
342.834	0.17
343.624	0.17
344.414	0.18
345.204	0.2
345.994	0.18
346.784	0.17
347.574	0.17
348.363	0.18
349.153	0.19
349.943	0.19
350.732	0.19
351.521	0.19
352.311	0.19
353.1	0.2
353.889	0.2
354.678	0.2
355.468	0.2
356.257	0.18
357.045	0.19
357.834	0.18
358.623	0.19
359.412	0.19
360.2	0.19
360.989	0.18
361.777	0.17
362.566	0.16
363.354	0.17
364.142	0.19
364.931	0.19
365.719	0.2
366.507	0.2
367.295	0.2
368.083	0.2
368.87	0.21
369.658	0.22
370.446	0.21
371.233	0.21
372.021	0.21
372.808	0.2
373.596	0.22
374.383	0.22
375.17	0.22
375.957	0.22
376.745	0.21
377.532	0.22
378.318	0.21
379.105	0.22
379.892	0.22
380.679	0.23
381.465	0.22
382.252	0.23
383.038	0.24
383.825	0.23
384.611	0.23
385.397	0.23
386.184	0.23
386.97	0.24
387.756	0.25
388.542	0.26
389.328	0.26
390.113	0.27
390.899	0.28
391.685	0.28
392.47	0.28
393.256	0.31
394.041	0.33
394.827	0.33
395.612	0.35
396.397	0.38
397.182	0.42
397.967	0.45
398.752	0.46
399.537	0.47
400.322	0.49
401.107	0.52
401.891	0.55
402.676	0.57
403.461	0.58
404.245	0.57
405.029	0.56
405.814	0.58
406.598	0.62
407.382	0.66
408.166	0.72
408.95	0.77
409.734	0.81
410.518	0.82
411.302	0.85
412.086	0.92
412.869	1.01
413.653	1.09
414.436	1.16
415.22	1.23
416.003	1.29
416.786	1.34
417.569	1.42
418.353	1.5
419.136	1.58
419.919	1.72
420.701	1.88
421.484	2.03
422.267	2.22
423.05	2.49
423.832	2.77
424.615	2.99
425.397	3.2
426.18	3.53
426.962	3.96
427.744	4.46
428.526	5
429.308	5.57
430.09	6.1
430.872	6.73
431.654	7.49
432.436	8.35
433.217	9.26
433.999	10.27
434.781	11.51
435.562	13.11
436.343	15.01
437.125	17.05
437.906	19.15
438.687	21.26
439.468	23.4
440.249	25.49
441.03	27.46
441.811	29.34
442.592	31.38
443.372	33.65
444.153	36.01
444.934	38.26
445.714	40.46
446.494	42.72
447.275	45.1
448.055	47.78
448.835	51.02
449.615	54.88
450.395	59.01
451.175	63.35
451.955	68
452.735	72.22
453.515	75.75
454.294	78.89
455.074	81.85
455.853	84.2
456.633	85.91
457.412	87.23
458.191	88.35
458.971	89.38
459.75	90.39
460.529	91.25
461.308	91.94
462.087	92.61
462.865	93.27
463.644	93.86
464.423	94.05
465.201	93.98
465.98	93.76
466.758	93.1
467.537	92.51
468.315	92.03
469.093	91.68
469.871	91.43
470.649	91.44
471.427	91.5
472.205	91.46
472.983	91.3
473.761	91
474.538	90.54
475.316	89.75
476.093	88.81
476.871	87.86
477.648	87.03
478.426	86.29
479.203	85.68
479.98	85.19
480.757	84.87
481.534	84.62
482.311	84.34
483.088	84.02
483.864	83.45
484.641	83.15
485.418	82.09
486.194	80.28
486.971	77.51
487.747	74.82
488.523	72.63
489.3	70.49
490.076	67.66
490.852	64.09
491.628	60.8
492.404	58.53
493.179	56.74
493.955	54.46
494.731	51.81
495.506	49.44
496.282	47.19
497.057	45.09
497.833	43.2
498.608	41.3
499.383	39.36
500.159	37.52
500.934	35.68
501.709	33.96
502.483	32.32
503.258	30.8
504.033	29.49
504.808	28.32
505.582	27.34
506.357	26.4
507.131	25.61
507.906	24.94
508.68	24.35
509.454	23.82
510.228	23.33
511.002	22.85
511.776	22.33
512.55	21.7
513.324	21.1
514.098	20.44
514.872	19.65
515.645	18.75
516.419	17.79
517.192	16.78
517.966	15.74
518.739	14.72
519.512	13.85
520.285	13.02
521.058	12.14
521.831	11.29
522.604	10.49
523.377	9.77
524.15	9.13
524.923	8.53
525.695	7.99
526.468	7.56
527.24	7.2
528.012	6.81
528.785	6.41
529.557	6.17
530.329	5.98
531.101	5.77
531.873	5.52
532.645	5.28
533.417	5.02
534.189	4.81
534.96	4.65
535.732	4.44
536.503	4.14
537.275	3.86
538.046	3.63
538.818	3.37
539.589	3.05
540.36	2.72
541.131	2.39
541.902	2.14
542.673	1.96
543.444	1.79
544.214	1.59
544.985	1.42
545.756	1.27
546.526	1.12
547.297	1
548.067	0.91
548.837	0.84
549.608	0.78
550.378	0.71
551.148	0.66
551.918	0.61
552.688	0.56
553.457	0.51
554.227	0.49
554.997	0.47
555.766	0.45
556.536	0.43
557.305	0.41
558.075	0.4
558.844	0.39
559.613	0.38
560.382	0.37
561.151	0.36
561.92	0.35
562.689	0.34
563.458	0.34
564.227	0.33
564.995	0.33
565.764	0.32
566.532	0.31
567.301	0.3
568.069	0.3
568.837	0.31
569.606	0.31
570.374	0.3
571.142	0.3
571.91	0.29
572.678	0.28
573.445	0.28
574.213	0.28
574.981	0.27
575.748	0.26
576.516	0.26
577.283	0.25
578.05	0.24
578.818	0.24
579.585	0.23
580.352	0.22
581.119	0.21
581.886	0.2
582.653	0.2
583.419	0.2
584.186	0.19
584.953	0.19
585.719	0.19
586.486	0.19
587.252	0.19
588.018	0.19
588.785	0.19
589.551	0.2
590.317	0.2
591.083	0.21
591.849	0.22
592.615	0.22
593.38	0.22
594.146	0.21
594.912	0.2
595.677	0.19
596.443	0.17
597.208	0.15
597.973	0.13
598.738	0.12
599.504	0.13
600.269	0.13
601.034	0.13
601.798	0.12
602.563	0.11
603.328	0.1
604.093	0.09
604.857	0.08
605.622	0.08
606.386	0.09
607.151	0.1
607.915	0.11
608.679	0.11
609.443	0.1
610.207	0.09
610.971	0.09
611.735	0.1
612.499	0.11
613.262	0.12
614.026	0.13
614.79	0.13
615.553	0.13
616.316	0.13
617.08	0.13
617.843	0.12
618.606	0.12
619.369	0.11
620.132	0.11
620.895	0.11
621.658	0.11
622.421	0.11
623.183	0.11
623.946	0.11
624.709	0.11
625.471	0.1
626.233	0.1
626.996	0.09
627.758	0.08
628.52	0.09
629.282	0.09
630.044	0.1
630.806	0.1
631.568	0.1
632.329	0.11
633.091	0.1
633.853	0.1
634.614	0.1
635.376	0.1
636.137	0.1
636.898	0.11
637.659	0.11
638.42	0.11
639.181	0.11
639.942	0.12
640.703	0.12
641.464	0.12
642.225	0.12
642.985	0.12
643.746	0.12
644.506	0.12
645.267	0.12
646.027	0.12
646.787	0.12
647.547	0.12
648.307	0.12
649.067	0.12
649.827	0.12
650.587	0.11
651.347	0.11
652.106	0.11
652.866	0.11
653.626	0.11
654.385	0.12
655.144	0.12
655.904	0.12
656.663	0.12
657.422	0.12
658.181	0.11
658.94	0.1
659.699	0.09
660.458	0.08
661.216	0.09
661.975	0.11
662.733	0.11
663.492	0.12
664.25	0.13
665.009	0.14
665.767	0.14
666.525	0.14
667.283	0.14
668.041	0.14
668.799	0.13
669.557	0.12
670.314	0.12
671.072	0.12
671.83	0.13
672.587	0.13
673.345	0.14
674.102	0.14
674.859	0.14
675.616	0.14
676.374	0.14
677.131	0.15
677.888	0.15
678.644	0.15
679.401	0.14
680.158	0.13
680.914	0.12
681.671	0.12
682.428	0.13
683.184	0.13
683.94	0.14
684.696	0.15
685.453	0.15
686.209	0.15
686.965	0.16
687.721	0.15
688.476	0.15
689.232	0.15
689.988	0.15
690.743	0.15
691.499	0.15
692.254	0.16
693.01	0.16
693.765	0.17
694.52	0.17
695.275	0.17
696.03	0.16
696.785	0.16
697.54	0.15
698.295	0.13
699.049	0.1
699.804	0.09
700.559	0.09
701.313	0.11
702.067	0.13
702.822	0.14
703.576	0.15
704.33	0.16
705.084	0.16
705.838	0.16
706.592	0.16
707.346	0.15
708.099	0.15
708.853	0.14
709.607	0.14
710.36	0.13
711.113	0.13
711.867	0.12
712.62	0.12
713.373	0.12
714.126	0.13
714.879	0.13
715.632	0.12
716.385	0.12
717.138	0.12
717.89	0.12
718.643	0.13
719.396	0.15
720.148	0.16
720.9	0.19
721.653	0.22
722.405	0.23
723.157	0.21
723.909	0.18
724.661	0.17
725.413	0.16
726.165	0.15
726.916	0.15
727.668	0.14
728.419	0.13
729.171	0.13
729.922	0.13
730.673	0.13
731.425	0.13
732.176	0.12
732.927	0.12
733.678	0.12
734.429	0.12
735.18	0.12
735.93	0.13
736.681	0.14
737.431	0.15
738.182	0.15
738.932	0.15
739.683	0.14
740.433	0.14
741.183	0.14
741.933	0.15
742.683	0.16
743.433	0.17
744.183	0.17
744.933	0.18
745.682	0.18
746.432	0.19
747.181	0.19
747.931	0.19
748.68	0.2
749.429	0.19
750.179	0.2
750.928	0.2
751.677	0.21
752.426	0.23
753.174	0.24
753.923	0.26
754.672	0.28
755.42	0.31
756.169	0.34
756.917	0.36
757.666	0.36
758.414	0.35
759.162	0.32
759.91	0.29
760.658	0.27
761.406	0.26
762.154	0.24
762.902	0.23
763.65	0.21
764.397	0.16
765.145	0.15
765.892	0.17
766.64	0.2
767.387	0.23
768.134	0.26
768.881	0.29
769.628	0.31
770.375	0.32
771.122	0.33
771.869	0.34
772.616	0.35
773.362	0.37
774.109	0.38
774.855	0.39
775.602	0.4
776.348	0.41
777.094	0.43
777.841	0.43
778.587	0.44
779.333	0.45
780.078	0.46
780.824	0.47
781.57	0.5
782.316	0.53
783.061	0.56
783.807	0.58
784.552	0.61
785.297	0.63
786.043	0.66
786.788	0.71
787.533	0.74
788.278	0.78
789.023	0.76
789.768	0.79
790.512	0.88
791.257	1.03
792.002	1.2
792.746	1.37
793.491	1.62
794.235	1.9
794.979	2.25
795.723	2.58
796.467	2.91
797.211	3.15
797.955	3.3
798.699	3.35
799.443	3.28
800.187	3.13
800.93	2.97
801.674	2.83
802.417	2.72
803.16	2.62
803.904	2.53
804.647	2.45
805.39	2.4
806.133	2.37
806.876	2.37
807.619	2.37
808.361	2.42
809.104	2.51
809.847	2.59
810.589	2.71
811.332	2.86
812.074	3
812.816	3.19
813.558	3.39
814.301	3.62
815.043	3.95
815.784	4.27
816.526	4.64
817.268	5.06
818.01	5.62
818.751	6.31
819.493	7.13
820.234	8.03
820.976	9.06
821.717	10.36
822.458	12.26
823.199	14.11
823.94	17.13
824.681	17.11
825.422	20.38
826.163	26.01
826.903	33.28
827.644	41.35
828.385	48.15
829.125	51.35
829.865	53.77
830.606	55.47
831.346	55.33
832.086	53.21
832.826	49.96
833.566	46.26
834.306	42.43
835.046	39.81
835.785	38.44
836.525	36.73
837.264	34.81
838.004	32.97
838.743	31.58
839.482	30.55
840.222	29.71
840.961	29.07
841.7	28.81
842.439	28.65
843.177	28.52
843.916	28.63
844.655	28.83
845.394	29.1
846.132	29.37
846.87	29.85
847.609	30.29
848.347	30.74
849.085	31.09
849.823	31.46
850.561	31.67
851.299	31.88
852.037	32.11
852.775	32.27
853.513	32.31
854.25	32.28
854.988	32.24
855.725	32.25
856.462	32.24
857.2	32.29
857.937	32.3
858.674	32.28
859.411	32.41
860.148	32.57
860.885	32.84
861.622	33.15
862.358	33.55
863.095	34.02
863.831	34.66
864.568	35.47
865.304	36.34
866.04	37.45
866.776	38.85
867.513	40.42
868.249	42.2
868.984	44.2
869.72	46.36
870.456	48.81
871.192	51.46
871.927	54.45
872.663	57.54
873.398	60.86
874.134	64.44
874.869	67.94
875.604	71.5
876.339	75
877.074	78.06
877.809	80.65
878.544	82.58
879.278	83.68
880.013	84.05
880.748	83.5
881.482	82.15
882.217	81.11
882.951	80.47
883.685	77.3
884.419	75.55
885.153	72.47
885.887	69.29
886.621	66.18
887.355	63.57
888.089	61.16
888.822	58.94
889.556	57.03
890.289	55.29
891.023	53.86
891.756	52.74
892.489	51.89
893.222	51.29
893.955	50.78
894.688	50.55
895.421	50.52
896.154	50.71
896.887	51.3
897.619	52.15
898.352	53.18
899.084	54.44
899.817	55.94
900.549	57.73
901.281	59.91
902.013	62.31
902.745	64.91
903.477	67.73
904.209	70.63
904.941	72.6
905.673	74.07
906.404	75.67
907.136	77.65
907.867	79.54
908.599	81.12
909.33	82.28
910.061	82.71
910.792	82.51
911.523	81.7
912.254	80.19
912.985	78.24
913.716	75.96
914.446	73.12
915.177	70.19
915.908	67.17
916.638	65.06
917.368	63.98
918.099	62.22
918.829	59.77
919.559	56.95
920.289	54.03
921.019	51.42
921.748	49.19
922.478	47.26
923.208	45.44
923.937	43.87
924.667	42.4
925.396	40.91
926.126	39.52
926.855	38.17
927.584	37.04
928.313	36.08
929.042	35.09
929.771	34.06
930.5	33.23
931.228	32.47
931.957	31.91
932.686	31.47
933.414	31.12
934.142	30.79
934.871	30.45
935.599	30.1
936.327	29.84
937.055	29.41
937.783	29.12
938.511	29.16
939.239	29.2
939.966	29.35
940.694	29.47
941.421	29.63
942.149	29.72
942.876	29.87
943.603	29.99
944.331	29.97
945.058	29.93
945.785	30.07
946.512	30.26
947.239	30.49
947.965	30.69
948.692	30.77
949.418	30.89
950.145	30.95
950.871	30.96
951.598	31.14
952.324	31.48
953.05	31.86
953.776	32.22
954.502	32.55
955.228	32.84
955.954	33.25
956.68	33.6
957.405	34
958.131	34.3
958.856	34.62
959.582	34.88
960.307	35.08
961.032	35.33
961.757	35.49
962.482	35.56
963.207	35.67
963.932	35.78
964.657	35.74
965.381	35.74
966.106	35.58
966.831	35.5
967.555	35.33
968.279	35.22
969.004	34.95
969.728	34.55
970.452	34.11
971.176	33.63
971.9	33.09
972.624	32.51
973.347	31.83
974.071	31.07
974.794	30.35
975.518	29.59
976.241	28.87
976.965	28.18
977.688	27.54
978.411	27
979.134	26.52
979.857	26.14
980.58	25.96
981.303	25.62
982.025	25.14
982.748	24.6
983.471	24.05
984.193	23.49
984.915	22.97
985.638	22.43
986.36	21.84
987.082	21.34
987.804	20.74
988.526	20.2
989.248	8.12
989.969	184.62
990.691	4.59
991.413	-7.49
